 N   L   xi       rms      A rms/a 
100 1.00 8 10.2548 25.9368 0.3954 
100 1.00 8 20.5097 51.8736 0.3954 
100 1.00 8 41.0194 103.7472 0.3954 
100 1.00 10 12.1503 32.4210 0.3748 
100 1.00 10 24.3006 64.8420 0.3748 
100 1.00 10 48.6013 129.6840 0.3748 
100 1.00 12 14.0875 38.9052 0.3621 
100 1.00 12 28.1749 77.8104 0.3621 
100 1.00 12 56.3498 155.6208 0.3621 
100 1.00 14 16.0731 45.3894 0.3541 
100 1.00 14 32.1462 90.7788 0.3541 
100 1.00 14 64.2925 181.5576 0.3541 
100 1.00 16 18.1038 51.8736 0.3490 
100 1.00 16 36.2075 103.7472 0.3490 
100 1.00 16 72.4151 207.4944 0.3490 
100 1.00 18 20.1748 58.3578 0.3457 
100 1.00 18 40.3495 116.7156 0.3457 
100 1.00 18 80.6991 233.4312 0.3457 
100 1.50 8 11.1226 24.7990 0.4485 
100 1.50 8 22.2451 49.5981 0.4485 
100 1.50 8 44.4902 99.1961 0.4485 
100 1.50 10 13.0836 30.9988 0.4221 
100 1.50 10 26.1672 61.9976 0.4221 
100 1.50 10 52.3344 123.9951 0.4221 
100 1.50 12 15.0935 37.1985 0.4058 
100 1.50 12 30.1869 74.3971 0.4058 
100 1.50 12 60.3738 148.7942 0.4058 
100 1.50 14 17.1568 43.3983 0.3953 
100 1.50 14 34.3136 86.7966 0.3953 
100 1.50 14 68.6273 173.5932 0.3953 
100 1.50 16 19.2645 49.5981 0.3884 
100 1.50 16 38.5289 99.1961 0.3884 
100 1.50 16 77.0578 198.3922 0.3884 
100 1.50 18 21.4048 55.7978 0.3836 
100 1.50 18 42.8097 111.5956 0.3836 
100 1.50 18 85.6193 223.1913 0.3836 
100 2.00 8 9.7735 26.8144 0.3645 
100 2.00 8 19.5470 53.6288 0.3645 
100 2.00 8 39.0940 107.2576 0.3645 
100 2.00 10 11.8547 33.5180 0.3537 
100 2.00 10 23.7095 67.0360 0.3537 
100 2.00 10 47.4189 134.0720 0.3537 
100 2.00 12 13.9988 40.2216 0.3480 
100 2.00 12 27.9975 80.4432 0.3480 
100 2.00 12 55.9951 160.8864 0.3480 
100 2.00 14 16.1860 46.9252 0.3449 
100 2.00 14 32.3719 93.8504 0.3449 
100 2.00 14 64.7439 187.7008 0.3449 
100 2.00 16 18.4032 53.6288 0.3432 
100 2.00 16 36.8064 107.2576 0.3432 
100 2.00 16 73.6128 214.5153 0.3432 
100 2.00 18 20.6418 60.3324 0.3421 
100 2.00 18 41.2835 120.6648 0.3421 
100 2.00 18 82.5670 241.3297 0.3421 
100 2.50 8 8.2866 24.1180 0.3436 
100 2.50 8 16.5732 48.2360 0.3436 
100 2.50 8 33.1464 96.4720 0.3436 
100 2.50 10 10.2721 30.1475 0.3407 
100 2.50 10 20.5443 60.2950 0.3407 
100 2.50 10 41.0886 120.5900 0.3407 
100 2.50 12 12.2987 36.1770 0.3400 
100 2.50 12 24.5975 72.3540 0.3400 
100 2.50 12 49.1949 144.7080 0.3400 
100 2.50 14 14.3502 42.2065 0.3400 
100 2.50 14 28.7005 84.4130 0.3400 
100 2.50 14 57.4010 168.8260 0.3400 
100 2.50 16 16.4169 48.2360 0.3403 
100 2.50 16 32.8338 96.4720 0.3403 
100 2.50 16 65.6676 192.9441 0.3403 
100 2.50 18 18.4931 54.2655 0.3408 
100 2.50 18 36.9862 108.5310 0.3408 
100 2.50 18 73.9723 217.0621 0.3408 
100 3.00 8 8.9791 24.2387 0.3704 
100 3.00 8 17.9581 48.4775 0.3704 
100 3.00 8 35.9163 96.9550 0.3704 
100 3.00 10 11.1966 30.2984 0.3695 
100 3.00 10 22.3931 60.5969 0.3695 
100 3.00 10 44.7862 121.1937 0.3695 
100 3.00 12 13.4320 36.3581 0.3694 
100 3.00 12 26.8639 72.7162 0.3694 
100 3.00 12 53.7279 145.4325 0.3694 
100 3.00 14 15.6750 42.4178 0.3695 
100 3.00 14 31.3501 84.8356 0.3695 
100 3.00 14 62.7002 169.6712 0.3695 
100 3.00 16 17.9215 48.4775 0.3697 
100 3.00 16 35.8429 96.9550 0.3697 
100 3.00 16 71.6859 193.9100 0.3697 
100 3.00 18 20.1693 54.5372 0.3698 
100 3.00 18 40.3386 109.0744 0.3698 
100 3.00 18 80.6772 218.1487 0.3698 
100 4.00 8 8.6572 25.2651 0.3427 
100 4.00 8 17.3145 50.5302 0.3427 
100 4.00 8 34.6290 101.0604 0.3427 
100 4.00 10 10.8251 31.5814 0.3428 
100 4.00 10 21.6502 63.1627 0.3428 
100 4.00 10 43.3004 126.3255 0.3428 
100 4.00 12 13.0208 37.8976 0.3436 
100 4.00 12 26.0415 75.7953 0.3436 
100 4.00 12 52.0830 151.5905 0.3436 
100 4.00 14 15.2322 44.2139 0.3445 
100 4.00 14 30.4645 88.4278 0.3445 
100 4.00 14 60.9289 176.8556 0.3445 
100 4.00 16 17.4534 50.5302 0.3454 
100 4.00 16 34.9067 101.0604 0.3454 
100 4.00 16 69.8135 202.1207 0.3454 
100 4.00 18 19.6798 56.8465 0.3462 
100 4.00 18 39.3596 113.6929 0.3462 
100 4.00 18 78.7191 227.3858 0.3462 
100 5.00 8 8.6074 25.0805 0.3432 
100 5.00 8 17.2148 50.1609 0.3432 
100 5.00 8 34.4295 100.3218 0.3432 
100 5.00 10 10.7920 31.3506 0.3442 
100 5.00 10 21.5839 62.7011 0.3442 
100 5.00 10 43.1678 125.4023 0.3442 
100 5.00 12 12.9865 37.6207 0.3452 
100 5.00 12 25.9730 75.2414 0.3452 
100 5.00 12 51.9460 150.4827 0.3452 
100 5.00 14 15.1889 43.8908 0.3461 
100 5.00 14 30.3778 87.7816 0.3461 
100 5.00 14 60.7556 175.5632 0.3461 
100 5.00 16 17.3939 50.1609 0.3468 
100 5.00 16 34.7878 100.3218 0.3468 
100 5.00 16 69.5756 200.6436 0.3468 
100 5.00 18 19.5860 56.4310 0.3471 
100 5.00 18 39.1720 112.8620 0.3471 
100 5.00 18 78.3440 225.7241 0.3471 
