 N   L   xi       rms      A rms/a 
100 1.00 8 10.2548 22.7758 0.4503 
100 1.00 8 20.5097 45.5516 0.4503 
100 1.00 8 41.0194 91.1031 0.4503 
100 1.00 10 12.1503 28.0754 0.4328 
100 1.00 10 24.3006 56.1509 0.4328 
100 1.00 10 48.6013 112.3017 0.4328 
100 1.00 12 14.0875 33.3088 0.4229 
100 1.00 12 28.1749 66.6176 0.4229 
100 1.00 12 56.3498 133.2351 0.4229 
100 1.00 14 16.0731 38.4876 0.4176 
100 1.00 14 32.1462 76.9753 0.4176 
100 1.00 14 64.2925 153.9506 0.4176 
100 1.00 16 18.1038 43.6203 0.4150 
100 1.00 16 36.2075 87.2406 0.4150 
100 1.00 16 72.4151 174.4813 0.4150 
100 1.00 18 20.1748 48.7129 0.4142 
100 1.00 18 40.3495 97.4259 0.4142 
100 1.00 18 80.6991 194.8518 0.4142 
100 1.50 8 11.1226 22.0544 0.5043 
100 1.50 8 22.2451 44.1087 0.5043 
100 1.50 8 44.4902 88.2174 0.5043 
100 1.50 10 13.0836 27.1861 0.4813 
100 1.50 10 26.1672 54.3723 0.4813 
100 1.50 10 52.3344 108.7446 0.4813 
100 1.50 12 15.0935 32.2537 0.4680 
100 1.50 12 30.1869 64.5075 0.4680 
100 1.50 12 60.3738 129.0149 0.4680 
100 1.50 14 17.1568 37.2686 0.4604 
100 1.50 14 34.3136 74.5371 0.4604 
100 1.50 14 68.6273 149.0742 0.4604 
100 1.50 16 19.2645 42.2387 0.4561 
100 1.50 16 38.5289 84.4773 0.4561 
100 1.50 16 77.0578 168.9546 0.4561 
100 1.50 18 21.4048 47.1700 0.4538 
100 1.50 18 42.8097 94.3399 0.4538 
100 1.50 18 85.6193 188.6798 0.4538 
100 2.00 8 9.7735 24.0620 0.4062 
100 2.00 8 19.5470 48.1241 0.4062 
100 2.00 8 39.0940 96.2481 0.4062 
100 2.00 10 11.8547 29.6610 0.3997 
100 2.00 10 23.7095 59.3219 0.3997 
100 2.00 10 47.4189 118.6439 0.3997 
100 2.00 12 13.9988 35.1899 0.3978 
100 2.00 12 27.9975 70.3798 0.3978 
100 2.00 12 55.9951 140.7595 0.3978 
100 2.00 14 16.1860 40.6612 0.3981 
100 2.00 14 32.3719 81.3224 0.3981 
100 2.00 14 64.7439 162.6449 0.3981 
100 2.00 16 18.4032 46.0838 0.3993 
100 2.00 16 36.8064 92.1675 0.3993 
100 2.00 16 73.6128 184.3350 0.3993 
100 2.00 18 20.6418 51.4640 0.4011 
100 2.00 18 41.2835 102.9280 0.4011 
100 2.00 18 82.5670 205.8559 0.4011 
100 2.50 8 8.2866 21.7938 0.3802 
100 2.50 8 16.5732 43.5877 0.3802 
100 2.50 8 33.1464 87.1754 0.3802 
100 2.50 10 10.2721 26.8650 0.3824 
100 2.50 10 20.5443 53.7300 0.3824 
100 2.50 10 41.0886 107.4600 0.3824 
100 2.50 12 12.2987 31.8727 0.3859 
100 2.50 12 24.5975 63.7455 0.3859 
100 2.50 12 49.1949 127.4910 0.3859 
100 2.50 14 14.3502 36.8283 0.3897 
100 2.50 14 28.7005 73.6567 0.3897 
100 2.50 14 57.4010 147.3133 0.3897 
100 2.50 16 16.4169 41.7397 0.3933 
100 2.50 16 32.8338 83.4794 0.3933 
100 2.50 16 65.6676 166.9589 0.3933 
100 2.50 18 18.4931 46.6128 0.3967 
100 2.50 18 36.9862 93.2256 0.3967 
100 2.50 18 73.9723 186.4511 0.3967 
100 3.00 8 8.9791 22.0281 0.4076 
100 3.00 8 17.9581 44.0562 0.4076 
100 3.00 8 35.9163 88.1124 0.4076 
100 3.00 10 11.1966 27.1538 0.4123 
100 3.00 10 22.3931 54.3076 0.4123 
100 3.00 10 44.7862 108.6151 0.4123 
100 3.00 12 13.4320 32.2153 0.4169 
100 3.00 12 26.8639 64.4307 0.4169 
100 3.00 12 53.7279 128.8613 0.4169 
100 3.00 14 15.6750 37.2242 0.4211 
100 3.00 14 31.3501 74.4484 0.4211 
100 3.00 14 62.7002 148.8968 0.4211 
100 3.00 16 17.9215 42.1884 0.4248 
100 3.00 16 35.8429 84.3767 0.4248 
100 3.00 16 71.6859 168.7535 0.4248 
100 3.00 18 20.1693 47.1138 0.4281 
100 3.00 18 40.3386 94.2276 0.4281 
100 3.00 18 80.6772 188.4552 0.4281 
100 4.00 8 8.6572 23.1682 0.3737 
100 4.00 8 17.3145 46.3364 0.3737 
100 4.00 8 34.6290 92.6728 0.3737 
100 4.00 10 10.8251 28.5591 0.3790 
100 4.00 10 21.6502 57.1183 0.3790 
100 4.00 10 43.3004 114.2366 0.3790 
100 4.00 12 13.0208 33.8827 0.3843 
100 4.00 12 26.0415 67.7653 0.3843 
100 4.00 12 52.0830 135.5307 0.3843 
100 4.00 14 15.2322 39.1508 0.3891 
100 4.00 14 30.4645 78.3015 0.3891 
100 4.00 14 60.9289 156.6031 0.3891 
100 4.00 16 17.4534 44.3719 0.3933 
100 4.00 16 34.9067 88.7437 0.3933 
100 4.00 16 69.8135 177.4875 0.3933 
100 4.00 18 19.6798 49.5522 0.3972 
100 4.00 18 39.3596 99.1045 0.3972 
100 4.00 18 78.7191 198.2089 0.3972 
100 5.00 8 8.6074 23.1598 0.3717 
100 5.00 8 17.2148 46.3196 0.3717 
100 5.00 8 34.4295 92.6392 0.3717 
100 5.00 10 10.7920 28.5488 0.3780 
100 5.00 10 21.5839 57.0976 0.3780 
100 5.00 10 43.1678 114.1953 0.3780 
100 5.00 12 12.9865 33.8704 0.3834 
100 5.00 12 25.9730 67.7408 0.3834 
100 5.00 12 51.9460 135.4817 0.3834 
100 5.00 14 15.1889 39.1366 0.3881 
100 5.00 14 30.3778 78.2732 0.3881 
100 5.00 14 60.7556 156.5464 0.3881 
100 5.00 16 17.3939 44.3558 0.3921 
100 5.00 16 34.7878 88.7116 0.3921 
100 5.00 16 69.5756 177.4233 0.3921 
100 5.00 18 19.5860 49.5343 0.3954 
100 5.00 18 39.1720 99.0686 0.3954 
100 5.00 18 78.3440 198.1373 0.3954 
