 N   L   xi       rms           A rms/a 
 25 0.50 2 0.0017 0.0030 0.0013 4.3195 0.0008 
 25 0.50 4 0.8628 1.6016 0.6777 6.1088 0.3013 
 25 0.50 6 2.1611 4.2238 1.9124 7.4817 0.6501 
 25 0.50 8 3.2728 6.0865 3.0969 8.6391 0.8438 
 25 0.50 10 4.3384 7.6355 4.1949 9.6588 0.9783 
 25 0.50 12 5.3930 9.0618 5.2844 10.5807 1.0889 
 50 0.50 2 0.0020 0.0040 0.0029 4.9802 0.0010 
 50 0.50 4 1.0850 2.1187 1.5049 7.0431 0.3857 
 50 0.50 6 3.1523 5.3489 3.7784 8.6259 0.8206 
 50 0.50 8 4.7764 7.4007 5.4611 9.9604 1.0209 
 50 0.50 10 6.0162 8.9390 6.9100 11.1360 1.1323 
 50 0.50 12 7.0843 10.2690 8.2443 12.1989 1.2105 
 75 0.50 2 0.0016 0.0053 0.0028 5.3044 0.0011 
 75 0.50 4 0.8715 2.7872 1.4799 7.5016 0.3935 
 75 0.50 6 2.9608 6.7590 3.8955 9.1875 0.8526 
 75 0.50 8 5.1723 8.7545 5.4834 10.6088 1.0542 
 75 0.50 10 6.8794 9.9044 6.6208 11.8610 1.1379 
 75 0.50 12 8.1844 10.7736 7.5990 12.9931 1.1791 
100 0.50 2 0.0010 0.0054 0.0036 5.9591 0.0010 
100 0.50 4 0.5363 2.8554 1.8886 8.4275 0.3632 
100 0.50 6 2.0102 7.1080 4.8553 10.3215 0.7841 
100 0.50 8 3.8765 9.4353 7.0108 11.9182 0.9868 
100 0.50 10 5.5860 10.8178 8.7078 13.3250 1.0901 
100 0.50 12 7.0519 11.8289 10.1039 14.5968 1.1483 
 25 1.00 2 0.4956 0.8773 0.4907 2.9284 0.3690 
 25 1.00 4 1.6561 3.2413 1.9765 4.1414 0.9626 
 25 1.00 6 2.5321 4.5993 3.1404 5.0722 1.1735 
 25 1.00 8 3.5651 5.8067 4.2746 5.8568 1.3492 
 25 1.00 10 4.6965 7.0116 5.4302 6.5482 1.5147 
 25 1.00 12 5.8796 8.2383 6.6132 7.1731 1.6720 
 50 1.00 2 0.5821 0.7628 0.8790 3.4473 0.3733 
 50 1.00 4 2.7261 2.8091 3.2449 4.8752 1.0398 
 50 1.00 6 3.9917 4.0508 4.3462 5.9709 1.1978 
 50 1.00 8 5.0568 5.1614 5.2615 6.8946 1.2962 
 50 1.00 10 6.1352 6.2966 6.2214 7.7084 1.3971 
 50 1.00 12 7.2297 7.4772 7.2516 8.4441 1.5014 
 75 1.00 2 0.9232 0.7068 0.9978 3.7773 0.4022 
 75 1.00 4 3.2305 3.1925 3.6193 5.3418 1.0864 
 75 1.00 6 4.1569 4.4957 4.6979 6.5424 1.1790 
 75 1.00 8 4.9057 5.4320 5.5687 7.5545 1.2165 
 75 1.00 10 5.6840 6.3480 6.5182 8.4462 1.2690 
 75 1.00 12 6.5274 7.3122 7.5466 9.2523 1.3356 
100 1.00 2 0.6563 1.1658 0.6560 4.1744 0.3438 
100 1.00 4 3.1039 4.5748 2.6242 5.9035 1.0108 
100 1.00 6 4.5562 6.1537 3.8238 7.2302 1.1637 
100 1.00 8 5.6955 7.2639 4.8746 8.3487 1.2361 
100 1.00 10 6.8201 8.3333 5.9615 9.3342 1.3085 
100 1.00 12 7.9831 9.4388 7.0825 10.2251 1.3859 
 25 1.50 2 1.0597 1.0185 0.9160 2.4690 0.6988 
 25 1.50 4 2.6698 2.5755 2.5364 3.4917 1.2856 
 25 1.50 6 4.0656 3.7978 3.8635 4.2765 1.5820 
 25 1.50 8 5.3800 4.9769 5.1659 4.9381 1.8137 
 25 1.50 10 6.6561 6.2219 6.5081 5.5209 2.0264 
 25 1.50 12 7.9214 7.5211 7.8953 6.0479 2.2273 
 50 1.50 2 1.0825 2.2088 1.0255 2.8504 0.8834 
 50 1.50 4 2.4798 4.0033 2.2264 4.0311 1.2569 
 50 1.50 6 3.6341 5.2904 3.2430 4.9371 1.4317 
 50 1.50 8 4.7733 6.5516 4.2792 5.7009 1.5887 
 50 1.50 10 5.9590 7.8037 5.3445 6.3738 1.7388 
 50 1.50 12 7.1861 9.0666 6.4438 6.9821 1.8845 
 75 1.50 2 1.6917 1.2932 0.4775 3.0853 0.6531 
 75 1.50 4 3.3267 2.5712 1.5787 4.3633 0.9945 
 75 1.50 6 4.5846 3.4703 2.5670 5.3439 1.1525 
 75 1.50 8 5.8365 4.4472 3.6179 6.1707 1.3054 
 75 1.50 10 7.0843 5.5370 4.7316 6.8990 1.4566 
 75 1.50 12 8.3193 6.6794 5.8726 7.5575 1.5986 
100 1.50 2 1.9832 3.5429 1.4798 3.3828 1.2068 
100 1.50 4 3.6759 5.4570 2.8416 4.7840 1.4553 
100 1.50 6 4.7542 6.3094 3.7107 5.8592 1.4644 
100 1.50 8 5.8070 7.2264 4.5974 6.7657 1.5122 
100 1.50 10 6.9390 8.2740 5.5569 7.5642 1.5925 
100 1.50 12 8.1326 9.4090 6.5804 8.2862 1.6876 
 25 2.00 2 0.8802 0.9801 1.4257 2.0804 0.9157 
 25 2.00 4 2.1442 2.1903 2.6863 2.9422 1.3804 
 25 2.00 6 3.3656 3.2670 3.9451 3.6034 1.6978 
 25 2.00 8 4.6458 4.3964 5.2652 4.1609 1.9885 
 25 2.00 10 5.9410 5.5683 6.6180 4.6520 2.2533 
 25 2.00 12 7.2382 6.7604 7.9854 5.0960 2.4944 
 50 2.00 2 2.2537 1.1804 1.2680 2.4465 1.1079 
 50 2.00 4 3.6508 2.1574 2.5419 3.4598 1.3933 
 50 2.00 6 4.8431 3.2078 3.6957 4.2374 1.6006 
 50 2.00 8 6.0455 4.2985 4.9526 4.8930 1.8056 
 50 2.00 10 7.2661 5.4111 6.2662 5.4705 2.0004 
 50 2.00 12 8.4887 6.5453 7.6064 5.9926 2.1829 
 75 2.00 2 1.6728 1.2920 2.5528 2.6630 1.2037 
 75 2.00 4 3.0659 2.4825 3.6972 3.7660 1.4222 
 75 2.00 6 4.1716 3.5098 4.6627 4.6124 1.5488 
 75 2.00 8 5.2762 4.5636 5.7203 5.3260 1.6898 
 75 2.00 10 6.4124 5.6591 6.8555 5.9546 1.8379 
 75 2.00 12 7.5759 6.7815 8.0445 6.5230 1.9854 
100 2.00 2 1.2913 2.0263 2.7022 2.9344 1.1837 
100 2.00 4 2.6144 3.0113 4.0123 4.1498 1.3405 
100 2.00 6 3.8138 3.9497 4.9767 5.0825 1.4470 
100 2.00 8 5.0710 5.0344 6.0192 5.8688 1.5862 
100 2.00 10 6.3651 6.1924 7.1543 6.5615 1.7344 
100 2.00 12 7.6647 7.3881 8.3447 7.1877 1.8794 
